Model,TBS1052C
Firmware Version,v2015-08-04-prequal4ch70_v1.3

Point Format,Y
Horizontal Units,S
Horizontal Scale,0.4
Sample Interval,0.0032
Filter Frequency,2e+08
Record Length,2000
Gating,0.0% to 100.0%
Probe Attenuation,10
Vertical Units,V
Vertical Offset,0
Vertical Scale,0.02
Label,
TIME,CH1
-3.200e+00,0.0112
-3.197e+00,0.0104
-3.194e+00,0.0104
-3.190e+00,0.0112
-3.187e+00,0.0096
-3.184e+00,0.0112
-3.181e+00,0.0112
-3.178e+00,0.0112
-3.174e+00,0.008
-3.171e+00,0.0112
-3.168e+00,0.0128
-3.165e+00,0.0104
-3.162e+00,0.0088
-3.158e+00,0.0088
-3.155e+00,0.0112
-3.152e+00,0.0104
-3.149e+00,0.0104
-3.146e+00,0.012
-3.142e+00,0.0104
-3.139e+00,0.0096
-3.136e+00,0.0104
-3.133e+00,0.0112
-3.130e+00,0.0096
-3.126e+00,0.0112
-3.123e+00,0.0096
-3.120e+00,0.0104
-3.117e+00,0.008
-3.114e+00,0.0104
-3.110e+00,0.0104
-3.107e+00,0.0104
-3.104e+00,0.0112
-3.101e+00,0.0088
-3.098e+00,0.012
-3.094e+00,0.0088
-3.091e+00,0.012
-3.088e+00,0.0112
-3.085e+00,0.0096
-3.082e+00,0.0112
-3.078e+00,0.0112
-3.075e+00,0.0096
-3.072e+00,0.0096
-3.069e+00,0.0112
-3.066e+00,0.0104
-3.062e+00,0.008
-3.059e+00,0.0104
-3.056e+00,0.0096
-3.053e+00,0.0088
-3.050e+00,0.0096
-3.046e+00,0.0104
-3.043e+00,0.0112
-3.040e+00,0.008
-3.037e+00,0.0096
-3.034e+00,0.0096
-3.030e+00,0.0128
-3.027e+00,0.0104
-3.024e+00,0.0096
-3.021e+00,0.0088
-3.018e+00,0.0104
-3.014e+00,0.0104
-3.011e+00,0.0088
-3.008e+00,0.0088
-3.005e+00,0.0096
-3.002e+00,0.0112
-2.998e+00,0.0104
-2.995e+00,0.0104
-2.992e+00,0.0112
-2.989e+00,0.0088
-2.986e+00,0.0088
-2.982e+00,0.0096
-2.979e+00,0.0104
-2.976e+00,0.0088
-2.973e+00,0.0104
-2.970e+00,0.0096
-2.966e+00,0.0096
-2.963e+00,0.0096
-2.960e+00,0.0088
-2.957e+00,0.012
-2.954e+00,0.0112
-2.950e+00,0.0112
-2.947e+00,0.0096
-2.944e+00,0.0128
-2.941e+00,0.0088
-2.938e+00,0.0088
-2.934e+00,0.0088
-2.931e+00,0.0104
-2.928e+00,0.0096
-2.925e+00,0.0104
-2.922e+00,0.012
-2.918e+00,0.0128
-2.915e+00,0.0096
-2.912e+00,0.0112
-2.909e+00,0.0096
-2.906e+00,0.0104
-2.902e+00,0.0104
-2.899e+00,0.0104
-2.896e+00,0.0088
-2.893e+00,0.0096
-2.890e+00,0.0096
-2.886e+00,0.0104
-2.883e+00,0.0104
-2.880e+00,0.0128
-2.877e+00,0.0112
-2.874e+00,0.0112
-2.870e+00,0.0128
-2.867e+00,0.0112
-2.864e+00,0.0112
-2.861e+00,0.0128
-2.858e+00,0.0136
-2.854e+00,0.012
-2.851e+00,0.0112
-2.848e+00,0.0112
-2.845e+00,0.008
-2.842e+00,0.0104
-2.838e+00,0.0112
-2.835e+00,0.008
-2.832e+00,0.0128
-2.829e+00,0.0112
-2.826e+00,0.0096
-2.822e+00,0.0104
-2.819e+00,0.0112
-2.816e+00,0.0104
-2.813e+00,0.0104
-2.810e+00,0.0104
-2.806e+00,0.0088
-2.803e+00,0.0096
-2.800e+00,0.0104
-2.797e+00,0.0096
-2.794e+00,0.012
-2.790e+00,0.0096
-2.787e+00,0.0096
-2.784e+00,0.012
-2.781e+00,0.0088
-2.778e+00,0.0104
-2.774e+00,0.0088
-2.771e+00,0.0104
-2.768e+00,0.0112
-2.765e+00,0.0136
-2.762e+00,0.0128
-2.758e+00,0.0104
-2.755e+00,0.0104
-2.752e+00,0.0104
-2.749e+00,0.0096
-2.746e+00,0.0136
-2.742e+00,0.0088
-2.739e+00,0.0104
-2.736e+00,0.0088
-2.733e+00,0.0112
-2.730e+00,0.0104
-2.726e+00,0.0112
-2.723e+00,0.0096
-2.720e+00,0.008
-2.717e+00,0.0112
-2.714e+00,0.0104
-2.710e+00,0.0104
-2.707e+00,0.0088
-2.704e+00,0.0088
-2.701e+00,0.0096
-2.698e+00,0.0096
-2.694e+00,0.012
-2.691e+00,0.0104
-2.688e+00,0.0112
-2.685e+00,0.0104
-2.682e+00,0.0104
-2.678e+00,0.012
-2.675e+00,0.0096
-2.672e+00,0.0112
-2.669e+00,0.0088
-2.666e+00,0.0096
-2.662e+00,0.0088
-2.659e+00,0.0088
-2.656e+00,0.0112
-2.653e+00,0.0112
-2.650e+00,0.0104
-2.646e+00,0.0112
-2.643e+00,0.0104
-2.640e+00,0.0088
-2.637e+00,0.012
-2.634e+00,0.0096
-2.630e+00,0.0096
-2.627e+00,0.0096
-2.624e+00,0.0104
-2.621e+00,0.0112
-2.618e+00,0.0112
-2.614e+00,0.0112
-2.611e+00,0.012
-2.608e+00,0.0088
-2.605e+00,0.012
-2.602e+00,0.0112
-2.598e+00,0.012
-2.595e+00,0.0088
-2.592e+00,0.0104
-2.589e+00,0.0104
-2.586e+00,0.0096
-2.582e+00,0.0096
-2.579e+00,0.008
-2.576e+00,0.0088
-2.573e+00,0.0096
-2.570e+00,0.0104
-2.566e+00,0.0104
-2.563e+00,0.0104
-2.560e+00,0.0112
-2.557e+00,0.0096
-2.554e+00,0.008
-2.550e+00,0.0096
-2.547e+00,0.0112
-2.544e+00,0.0104
-2.541e+00,0.008
-2.538e+00,0.0096
-2.534e+00,0.0112
-2.531e+00,0.0096
-2.528e+00,0.012
-2.525e+00,0.0112
-2.522e+00,0.0104
-2.518e+00,0.0088
-2.515e+00,0.0096
-2.512e+00,0.008
-2.509e+00,0.0104
-2.506e+00,0.0104
-2.502e+00,0.0096
-2.499e+00,0.012
-2.496e+00,0.0112
-2.493e+00,0.0072
-2.490e+00,0.0112
-2.486e+00,0.0096
-2.483e+00,0.012
-2.480e+00,0.0104
-2.477e+00,0.0128
-2.474e+00,0.0136
-2.470e+00,0.0104
-2.467e+00,0.0088
-2.464e+00,0.0112
-2.461e+00,0.012
-2.458e+00,0.0104
-2.454e+00,0.0128
-2.451e+00,0.0112
-2.448e+00,0.012
-2.445e+00,0.0104
-2.442e+00,0.0096
-2.438e+00,0.0112
-2.435e+00,0.0096
-2.432e+00,0.008
-2.429e+00,0.0104
-2.426e+00,0.0104
-2.422e+00,0.012
-2.419e+00,0.0088
-2.416e+00,0.012
-2.413e+00,0.0104
-2.410e+00,0.0112
-2.406e+00,0.0088
-2.403e+00,0.0104
-2.400e+00,0.0104
-2.397e+00,0.012
-2.394e+00,0.012
-2.390e+00,0.0104
-2.387e+00,0.0112
-2.384e+00,0.0112
-2.381e+00,0.0128
-2.378e+00,0.0104
-2.374e+00,0.0112
-2.371e+00,0.0112
-2.368e+00,0.0104
-2.365e+00,0.0104
-2.362e+00,0.0112
-2.358e+00,0.0104
-2.355e+00,0.0112
-2.352e+00,0.0088
-2.349e+00,0.0128
-2.346e+00,0.012
-2.342e+00,0.0104
-2.339e+00,0.0096
-2.336e+00,0.0096
-2.333e+00,0.0096
-2.330e+00,0.0096
-2.326e+00,0.0096
-2.323e+00,0.0104
-2.320e+00,0.0112
-2.317e+00,0.0104
-2.314e+00,0.0096
-2.310e+00,0.0104
-2.307e+00,0.0096
-2.304e+00,0.0128
-2.301e+00,0.0104
-2.298e+00,0.0136
-2.294e+00,0.0128
-2.291e+00,0.0104
-2.288e+00,0.0096
-2.285e+00,0.012
-2.282e+00,0.0104
-2.278e+00,0.012
-2.275e+00,0.012
-2.272e+00,0.0104
-2.269e+00,0.012
-2.266e+00,0.0096
-2.262e+00,0.012
-2.259e+00,0.008
-2.256e+00,0.0104
-2.253e+00,0.0096
-2.250e+00,0.0104
-2.246e+00,0.0128
-2.243e+00,0.0112
-2.240e+00,0.012
-2.237e+00,0.0104
-2.234e+00,0.012
-2.230e+00,0.012
-2.227e+00,0.008
-2.224e+00,0.0104
-2.221e+00,0.0088
-2.218e+00,0.0104
-2.214e+00,0.012
-2.211e+00,0.0096
-2.208e+00,0.0136
-2.205e+00,0.0104
-2.202e+00,0.0088
-2.198e+00,0.0088
-2.195e+00,0.0104
-2.192e+00,0.0088
-2.189e+00,0.0128
-2.186e+00,0.0112
-2.182e+00,0.0112
-2.179e+00,0.0096
-2.176e+00,0.012
-2.173e+00,0.0096
-2.170e+00,0.0096
-2.166e+00,0.0112
-2.163e+00,0.0112
-2.160e+00,0.0088
-2.157e+00,0.0112
-2.154e+00,0.0096
-2.150e+00,0.0096
-2.147e+00,0.012
-2.144e+00,0.0112
-2.141e+00,0.0112
-2.138e+00,0.0112
-2.134e+00,0.012
-2.131e+00,0.012
-2.128e+00,0.0128
-2.125e+00,0.0112
-2.122e+00,0.0112
-2.118e+00,0.0112
-2.115e+00,0.0112
-2.112e+00,0.0112
-2.109e+00,0.0104
-2.106e+00,0.0128
-2.102e+00,0.012
-2.099e+00,0.0096
-2.096e+00,0.0128
-2.093e+00,0.0112
-2.090e+00,0.008
-2.086e+00,0.0088
-2.083e+00,0.0104
-2.080e+00,0.0104
-2.077e+00,0.0104
-2.074e+00,0.0112
-2.070e+00,0.0104
-2.067e+00,0.0112
-2.064e+00,0.0096
-2.061e+00,0.012
-2.058e+00,0.0112
-2.054e+00,0.012
-2.051e+00,0.0096
-2.048e+00,0.0096
-2.045e+00,0.012
-2.042e+00,0.0104
-2.038e+00,0.0112
-2.035e+00,0.0088
-2.032e+00,0.0096
-2.029e+00,0.008
-2.026e+00,0.0096
-2.022e+00,0.008
-2.019e+00,0.0088
-2.016e+00,0.0088
-2.013e+00,0.0112
-2.010e+00,0.0096
-2.006e+00,0.0096
-2.003e+00,0.0104
-2.000e+00,0.0096
-1.997e+00,0.0088
-1.994e+00,0.0128
-1.990e+00,0.0096
-1.987e+00,0.0088
-1.984e+00,0.0088
-1.981e+00,0.0112
-1.978e+00,0.0096
-1.974e+00,0.0112
-1.971e+00,0.012
-1.968e+00,0.008
-1.965e+00,0.0104
-1.962e+00,0.0112
-1.958e+00,0.0112
-1.955e+00,0.008
-1.952e+00,0.0112
-1.949e+00,0.0104
-1.946e+00,0.0112
-1.942e+00,0.012
-1.939e+00,0.0056
-1.936e+00,0.0088
-1.933e+00,0.0096
-1.930e+00,0.008
-1.926e+00,0.0104
-1.923e+00,0.012
-1.920e+00,0.0112
-1.917e+00,0.0104
-1.914e+00,0.0104
-1.910e+00,0.0104
-1.907e+00,0.0096
-1.904e+00,0.0104
-1.901e+00,0.0096
-1.898e+00,0.012
-1.894e+00,0.0096
-1.891e+00,0.0104
-1.888e+00,0.0104
-1.885e+00,0.0096
-1.882e+00,0.008
-1.878e+00,0.0096
-1.875e+00,0.0088
-1.872e+00,0.008
-1.869e+00,0.012
-1.866e+00,0.0096
-1.862e+00,0.0112
-1.859e+00,0.0128
-1.856e+00,0.012
-1.853e+00,0.0096
-1.850e+00,0.008
-1.846e+00,0.0088
-1.843e+00,0.0104
-1.840e+00,0.0104
-1.837e+00,0.0112
-1.834e+00,0.0104
-1.830e+00,0.012
-1.827e+00,0.0104
-1.824e+00,0.0104
-1.821e+00,0.0096
-1.818e+00,0.0112
-1.814e+00,0.0104
-1.811e+00,0.0136
-1.808e+00,0.0096
-1.805e+00,0.0096
-1.802e+00,0.0104
-1.798e+00,0.0112
-1.795e+00,0.0128
-1.792e+00,0.0104
-1.789e+00,0.0104
-1.786e+00,0.012
-1.782e+00,0.0096
-1.779e+00,0.0104
-1.776e+00,0.0088
-1.773e+00,0.0104
-1.770e+00,0.0112
-1.766e+00,0.0096
-1.763e+00,0.008
-1.760e+00,0.012
-1.757e+00,0.0104
-1.754e+00,0.0128
-1.750e+00,0.0088
-1.747e+00,0.012
-1.744e+00,0.0096
-1.741e+00,0.0104
-1.738e+00,0.0096
-1.734e+00,0.012
-1.731e+00,0.012
-1.728e+00,0.0104
-1.725e+00,0.0088
-1.722e+00,0.0096
-1.718e+00,0.0104
-1.715e+00,0.0096
-1.712e+00,0.0088
-1.709e+00,0.0104
-1.706e+00,0.0096
-1.702e+00,0.0096
-1.699e+00,0.0088
-1.696e+00,0.0112
-1.693e+00,0.0088
-1.690e+00,0.0112
-1.686e+00,0.0112
-1.683e+00,0.0064
-1.680e+00,0.0096
-1.677e+00,0.0104
-1.674e+00,0.0088
-1.670e+00,0.008
-1.667e+00,0.0096
-1.664e+00,0.012
-1.661e+00,0.0112
-1.658e+00,0.0096
-1.654e+00,0.0112
-1.651e+00,0.0104
-1.648e+00,0.0096
-1.645e+00,0.012
-1.642e+00,0.0104
-1.638e+00,0.012
-1.635e+00,0.0072
-1.632e+00,0.0088
-1.629e+00,0.0112
-1.626e+00,0.0104
-1.622e+00,0.0088
-1.619e+00,0.0088
-1.616e+00,0.0112
-1.613e+00,0.0104
-1.610e+00,0.0112
-1.606e+00,0.012
-1.603e+00,0.0112
-1.600e+00,0.0096
-1.597e+00,0.012
-1.594e+00,0.008
-1.590e+00,0.0096
-1.587e+00,0.0096
-1.584e+00,0.0088
-1.581e+00,0.0096
-1.578e+00,0.0112
-1.574e+00,0.0104
-1.571e+00,0.0104
-1.568e+00,0.0104
-1.565e+00,0.0096
-1.562e+00,0.0096
-1.558e+00,0.008
-1.555e+00,0.0096
-1.552e+00,0.0096
-1.549e+00,0.0104
-1.546e+00,0.0104
-1.542e+00,0.0096
-1.539e+00,0.012
-1.536e+00,0.0088
-1.533e+00,0.0104
-1.530e+00,0.0088
-1.526e+00,0.0104
-1.523e+00,0.0104
-1.520e+00,0.0104
-1.517e+00,0.0112
-1.514e+00,0.012
-1.510e+00,0.0112
-1.507e+00,0.0104
-1.504e+00,0.0088
-1.501e+00,0.0096
-1.498e+00,0.0104
-1.494e+00,0.012
-1.491e+00,0.0104
-1.488e+00,0.008
-1.485e+00,0.0088
-1.482e+00,0.0096
-1.478e+00,0.0096
-1.475e+00,0.0088
-1.472e+00,0.0088
-1.469e+00,0.0072
-1.466e+00,0.0088
-1.462e+00,0.012
-1.459e+00,0.0088
-1.456e+00,0.0088
-1.453e+00,0.0096
-1.450e+00,0.0128
-1.446e+00,0.0088
-1.443e+00,0.0104
-1.440e+00,0.0088
-1.437e+00,0.0104
-1.434e+00,0.0096
-1.430e+00,0.0112
-1.427e+00,0.0112
-1.424e+00,0.0104
-1.421e+00,0.0104
-1.418e+00,0.0088
-1.414e+00,0.0088
-1.411e+00,0.0104
-1.408e+00,0.0088
-1.405e+00,0.0104
-1.402e+00,0.012
-1.398e+00,0.0096
-1.395e+00,0.008
-1.392e+00,0.0104
-1.389e+00,0.0104
-1.386e+00,0.012
-1.382e+00,0.008
-1.379e+00,0.012
-1.376e+00,0.008
-1.373e+00,0.0104
-1.370e+00,0.0088
-1.366e+00,0.0104
-1.363e+00,0.0096
-1.360e+00,0.0096
-1.357e+00,0.012
-1.354e+00,0.0112
-1.350e+00,0.0104
-1.347e+00,0.0088
-1.344e+00,0.0112
-1.341e+00,0.0096
-1.338e+00,0.0088
-1.334e+00,0.0096
-1.331e+00,0.0112
-1.328e+00,0.0088
-1.325e+00,0.0088
-1.322e+00,0.008
-1.318e+00,0.0096
-1.315e+00,0.008
-1.312e+00,0.0128
-1.309e+00,0.0104
-1.306e+00,0.0128
-1.302e+00,0.0128
-1.299e+00,0.0112
-1.296e+00,0.0096
-1.293e+00,0.0128
-1.290e+00,0.0104
-1.286e+00,0.008
-1.283e+00,0.0088
-1.280e+00,0.0104
-1.277e+00,0.012
-1.274e+00,0.0128
-1.270e+00,0.0104
-1.267e+00,0.0104
-1.264e+00,0.0072
-1.261e+00,0.0096
-1.258e+00,0.0128
-1.254e+00,0.012
-1.251e+00,0.0088
-1.248e+00,0.012
-1.245e+00,0.0104
-1.242e+00,0.0104
-1.238e+00,0.008
-1.235e+00,0.0104
-1.232e+00,0.0104
-1.229e+00,0.0096
-1.226e+00,0.0104
-1.222e+00,0.012
-1.219e+00,0.0112
-1.216e+00,0.0096
-1.213e+00,0.0112
-1.210e+00,0.012
-1.206e+00,0.0096
-1.203e+00,0.0104
-1.200e+00,0.0112
-1.197e+00,0.0096
-1.194e+00,0.008
-1.190e+00,0.0088
-1.187e+00,0.0104
-1.184e+00,0.0096
-1.181e+00,0.0088
-1.178e+00,0.0088
-1.174e+00,0.0088
-1.171e+00,0.012
-1.168e+00,0.0112
-1.165e+00,0.0104
-1.162e+00,0.0112
-1.158e+00,0.0096
-1.155e+00,0.0104
-1.152e+00,0.0096
-1.149e+00,0.0088
-1.146e+00,0.0104
-1.142e+00,0.0128
-1.139e+00,0.0104
-1.136e+00,0.0112
-1.133e+00,0.0112
-1.130e+00,0.0104
-1.126e+00,0.0096
-1.123e+00,0.0104
-1.120e+00,0.0088
-1.117e+00,0.0096
-1.114e+00,0.0112
-1.110e+00,0.012
-1.107e+00,0.0104
-1.104e+00,0.0088
-1.101e+00,0.0088
-1.098e+00,0.0112
-1.094e+00,0.0096
-1.091e+00,0.0088
-1.088e+00,0.0104
-1.085e+00,0.0104
-1.082e+00,0.0104
-1.078e+00,0.0104
-1.075e+00,0.012
-1.072e+00,0.0064
-1.069e+00,0.0104
-1.066e+00,0.0088
-1.062e+00,0.0096
-1.059e+00,0.0096
-1.056e+00,0.0072
-1.053e+00,0.012
-1.050e+00,0.0096
-1.046e+00,0.0096
-1.043e+00,0.0088
-1.040e+00,0.012
-1.037e+00,0.0096
-1.034e+00,0.012
-1.030e+00,0.012
-1.027e+00,0.0096
-1.024e+00,0.0112
-1.021e+00,0.0096
-1.018e+00,0.0096
-1.014e+00,0.0088
-1.011e+00,0.0104
-1.008e+00,0.0088
-1.005e+00,0.0104
-1.002e+00,0.0088
-9.984e-01,0.0112
-9.952e-01,0.0112
-9.920e-01,0.0112
-9.888e-01,0.0112
-9.856e-01,0.008
-9.824e-01,0.0088
-9.792e-01,0.008
-9.760e-01,0.0096
-9.728e-01,0.012
-9.696e-01,0.0096
-9.664e-01,0.0088
-9.632e-01,0.008
-9.600e-01,0.0096
-9.568e-01,0.0128
-9.536e-01,0.0096
-9.504e-01,0.0112
-9.472e-01,0.0112
-9.440e-01,0.0096
-9.408e-01,0.0112
-9.376e-01,0.0088
-9.344e-01,0.0104
-9.312e-01,0.0096
-9.280e-01,0.012
-9.248e-01,0.0112
-9.216e-01,0.0088
-9.184e-01,0.0096
-9.152e-01,0.0096
-9.120e-01,0.0096
-9.088e-01,0.0128
-9.056e-01,0.0096
-9.024e-01,0.0112
-8.992e-01,0.0112
-8.960e-01,0.012
-8.928e-01,0.0096
-8.896e-01,0.0104
-8.864e-01,0.0104
-8.832e-01,0.0096
-8.800e-01,0.0112
-8.768e-01,0.0112
-8.736e-01,0.0104
-8.704e-01,0.012
-8.672e-01,0.0104
-8.640e-01,0.0128
-8.608e-01,0.0096
-8.576e-01,0.0112
-8.544e-01,0.012
-8.512e-01,0.008
-8.480e-01,0.0096
-8.448e-01,0.0088
-8.416e-01,0.0096
-8.384e-01,0.0072
-8.352e-01,0.0096
-8.320e-01,0.0104
-8.288e-01,0.012
-8.256e-01,0.012
-8.224e-01,0.0104
-8.192e-01,0.0104
-8.160e-01,0.012
-8.128e-01,0.0112
-8.096e-01,0.0088
-8.064e-01,0.0128
-8.032e-01,0.0104
-8.000e-01,0.0104
-7.968e-01,0.0104
-7.936e-01,0.0096
-7.904e-01,0.0112
-7.872e-01,0.0096
-7.840e-01,0.0112
-7.808e-01,0.0104
-7.776e-01,0.008
-7.744e-01,0.0104
-7.712e-01,0.0112
-7.680e-01,0.0096
-7.648e-01,0.0104
-7.616e-01,0.0104
-7.584e-01,0.0112
-7.552e-01,0.0096
-7.520e-01,0.0104
-7.488e-01,0.0104
-7.456e-01,0.0096
-7.424e-01,0.008
-7.392e-01,0.012
-7.360e-01,0.0096
-7.328e-01,0.0096
-7.296e-01,0.0104
-7.264e-01,0.0096
-7.232e-01,0.0096
-7.200e-01,0.0448
-7.168e-01,0.0296
-7.136e-01,0.028
-7.104e-01,0.0304
-7.072e-01,0.0312
-7.040e-01,0.0296
-7.008e-01,0.0264
-6.976e-01,0.0288
-6.944e-01,0.0512
-6.912e-01,0.0504
-6.880e-01,0.0504
-6.848e-01,0.0528
-6.816e-01,0.0528
-6.784e-01,0.0552
-6.752e-01,0.0528
-6.720e-01,0.0536
-6.688e-01,0.0536
-6.656e-01,0.0536
-6.624e-01,0.0528
-6.592e-01,0.0544
-6.560e-01,0.0552
-6.528e-01,0.0552
-6.496e-01,0.0552
-6.464e-01,0.0568
-6.432e-01,0.0552
-6.400e-01,0.0552
-6.368e-01,0.0576
-6.336e-01,0.056
-6.304e-01,0.056
-6.272e-01,0.056
-6.240e-01,0.0544
-6.208e-01,0.056
-6.176e-01,0.0552
-6.144e-01,0.0552
-6.112e-01,0.0536
-6.080e-01,0.056
-6.048e-01,0.0568
-6.016e-01,0.0552
-5.984e-01,0.0544
-5.952e-01,0.0528
-5.920e-01,0.0552
-5.888e-01,0.0552
-5.856e-01,0.056
-5.824e-01,0.056
-5.792e-01,0.056
-5.760e-01,0.0576
-5.728e-01,0.0528
-5.696e-01,0.0576
-5.664e-01,0.0552
-5.632e-01,0.0568
-5.600e-01,0.0544
-5.568e-01,0.056
-5.536e-01,0.056
-5.504e-01,0.0552
-5.472e-01,0.0552
-5.440e-01,0.0552
-5.408e-01,0.0552
-5.376e-01,0.0568
-5.344e-01,0.0552
-5.312e-01,0.0552
-5.280e-01,0.0544
-5.248e-01,0.056
-5.216e-01,0.0568
-5.184e-01,0.0528
-5.152e-01,0.0552
-5.120e-01,0.0552
-5.088e-01,0.056
-5.056e-01,0.0552
-5.024e-01,0.0544
-4.992e-01,0.0552
-4.960e-01,0.056
-4.928e-01,0.0552
-4.896e-01,0.0584
-4.864e-01,0.0552
-4.832e-01,0.0536
-4.800e-01,0.0536
-4.768e-01,0.0576
-4.736e-01,0.0576
-4.704e-01,0.0552
-4.672e-01,0.056
-4.640e-01,0.0552
-4.608e-01,0.0568
-4.576e-01,0.0536
-4.544e-01,0.056
-4.512e-01,0.0544
-4.480e-01,0.0568
-4.448e-01,0.056
-4.416e-01,0.056
-4.384e-01,0.0536
-4.352e-01,0.0568
-4.320e-01,0.0552
-4.288e-01,0.0536
-4.256e-01,0.0552
-4.224e-01,0.0544
-4.192e-01,0.0544
-4.160e-01,0.0568
-4.128e-01,0.0552
-4.096e-01,0.056
-4.064e-01,0.0536
-4.032e-01,0.056
-4.000e-01,0.056
-3.968e-01,0.0544
-3.936e-01,0.0544
-3.904e-01,0.052
-3.872e-01,0.0552
-3.840e-01,0.0544
-3.808e-01,0.056
-3.776e-01,0.056
-3.744e-01,0.0568
-3.712e-01,0.0544
-3.680e-01,0.0576
-3.648e-01,0.056
-3.616e-01,0.056
-3.584e-01,0.0552
-3.552e-01,0.0576
-3.520e-01,0.0544
-3.488e-01,0.0544
-3.456e-01,0.0552
-3.424e-01,0.0568
-3.392e-01,0.0576
-3.360e-01,0.0552
-3.328e-01,0.0552
-3.296e-01,0.0544
-3.264e-01,0.0552
-3.232e-01,0.0552
-3.200e-01,0.0552
-3.168e-01,0.0568
-3.136e-01,0.0536
-3.104e-01,0.056
-3.072e-01,0.0536
-3.040e-01,0.056
-3.008e-01,0.056
-2.976e-01,0.056
-2.944e-01,0.0568
-2.912e-01,0.0552
-2.880e-01,0.0552
-2.848e-01,0.056
-2.816e-01,0.0552
-2.784e-01,0.0568
-2.752e-01,0.0536
-2.720e-01,0.0528
-2.688e-01,0.0544
-2.656e-01,0.0576
-2.624e-01,0.056
-2.592e-01,0.0568
-2.560e-01,0.056
-2.528e-01,0.0552
-2.496e-01,0.056
-2.464e-01,0.0544
-2.432e-01,0.056
-2.400e-01,0.056
-2.368e-01,0.056
-2.336e-01,0.0552
-2.304e-01,0.0552
-2.272e-01,0.0552
-2.240e-01,0.0544
-2.208e-01,0.0552
-2.176e-01,0.0552
-2.144e-01,0.0544
-2.112e-01,0.0568
-2.080e-01,0.056
-2.048e-01,0.0576
-2.016e-01,0.0552
-1.984e-01,0.056
-1.952e-01,0.0552
-1.920e-01,0.0568
-1.888e-01,0.0544
-1.856e-01,0.0552
-1.824e-01,0.0552
-1.792e-01,0.0552
-1.760e-01,0.0544
-1.728e-01,0.056
-1.696e-01,0.0584
-1.664e-01,0.0576
-1.632e-01,0.0664
-1.600e-01,0.0616
-1.568e-01,0.0624
-1.536e-01,0.072
-1.504e-01,0.0688
-1.472e-01,0.0656
-1.440e-01,0.0664
-1.408e-01,0.0656
-1.376e-01,0.0648
-1.344e-01,0.0696
-1.312e-01,0.072
-1.280e-01,0.0704
-1.248e-01,0.0664
-1.216e-01,0.0688
-1.184e-01,0.0648
-1.152e-01,0.0688
-1.120e-01,0.0664
-1.088e-01,0.0664
-1.056e-01,0.068
-1.024e-01,0.0536
-9.920e-02,0.0536
-9.600e-02,0.0592
-9.280e-02,0.068
-8.960e-02,0.0648
-8.640e-02,0.064
-8.320e-02,0.0656
-8.000e-02,0.068
-7.680e-02,0.064
-7.360e-02,0.0648
-7.040e-02,0.0656
-6.720e-02,0.0632
-6.400e-02,0.0632
-6.080e-02,0.0616
-5.760e-02,0.0648
-5.440e-02,0.064
-5.120e-02,0.0664
-4.800e-02,0.0656
-4.480e-02,0.0624
-4.160e-02,0.0656
-3.840e-02,0.0632
-3.520e-02,0.0624
-3.200e-02,0.0648
-2.880e-02,0.064
-2.560e-02,0.0648
-2.240e-02,0.064
-1.920e-02,0.0616
-1.600e-02,0.0648
-1.280e-02,0.0632
-9.600e-03,0.0616
-6.400e-03,0.0656
-3.200e-03,0.0656
5.850e-14,0.068
3.200e-03,0.0624
6.400e-03,0.0648
9.600e-03,0.064
1.280e-02,0.0648
1.600e-02,0.0648
1.920e-02,0.0648
2.240e-02,0.0624
2.560e-02,0.064
2.880e-02,0.0648
3.200e-02,0.064
3.520e-02,0.0632
3.840e-02,0.0632
4.160e-02,0.0632
4.480e-02,0.0608
4.800e-02,0.0664
5.120e-02,0.0656
5.440e-02,0.0632
5.760e-02,0.0648
6.080e-02,0.0656
6.400e-02,0.068
6.720e-02,0.0664
7.040e-02,0.064
7.360e-02,0.0656
7.680e-02,0.0656
8.000e-02,0.0632
8.320e-02,0.0624
8.640e-02,0.0632
8.960e-02,0.0656
9.280e-02,0.0656
9.600e-02,0.0664
9.920e-02,0.0632
1.024e-01,0.064
1.056e-01,0.064
1.088e-01,0.0608
1.120e-01,0.0624
1.152e-01,0.0672
1.184e-01,0.0632
1.216e-01,0.064
1.248e-01,0.0664
1.280e-01,0.0664
1.312e-01,0.064
1.344e-01,0.0624
1.376e-01,0.064
1.408e-01,0.0648
1.440e-01,0.0624
1.472e-01,0.064
1.504e-01,0.0632
1.536e-01,0.0608
1.568e-01,0.064
1.600e-01,0.0656
1.632e-01,0.0632
1.664e-01,0.0608
1.696e-01,0.0616
1.728e-01,0.0592
1.760e-01,0.0656
1.792e-01,0.0648
1.824e-01,0.0616
1.856e-01,0.0592
1.888e-01,0.0632
1.920e-01,0.0608
1.952e-01,0.0632
1.984e-01,0.06
2.016e-01,0.0616
2.048e-01,0.0608
2.080e-01,0.0608
2.112e-01,0.06
2.144e-01,0.0624
2.176e-01,0.0608
2.208e-01,0.0576
2.240e-01,0.0616
2.272e-01,0.0616
2.304e-01,0.0616
2.336e-01,0.0608
2.368e-01,0.0608
2.400e-01,0.06
2.432e-01,0.06
2.464e-01,0.0632
2.496e-01,0.0608
2.528e-01,0.0648
2.560e-01,0.064
2.592e-01,0.0664
2.624e-01,0.064
2.656e-01,0.0648
2.688e-01,0.0632
2.720e-01,0.064
2.752e-01,0.064
2.784e-01,0.0632
2.816e-01,0.0632
2.848e-01,0.0648
2.880e-01,0.0656
2.912e-01,0.0616
2.944e-01,0.0648
2.976e-01,0.0648
3.008e-01,0.0672
3.040e-01,0.0656
3.072e-01,0.0632
3.104e-01,0.0664
3.136e-01,0.0672
3.168e-01,0.0648
3.200e-01,0.064
3.232e-01,0.064
3.264e-01,0.0648
3.296e-01,0.0656
3.328e-01,0.064
3.360e-01,0.0632
3.392e-01,0.064
3.424e-01,0.0632
3.456e-01,0.0648
3.488e-01,0.0632
3.520e-01,0.0648
3.552e-01,0.0624
3.584e-01,0.0648
3.616e-01,0.0648
3.648e-01,0.0656
3.680e-01,0.0648
3.712e-01,0.0616
3.744e-01,0.064
3.776e-01,0.06
3.808e-01,0.0656
3.840e-01,0.0656
3.872e-01,0.0624
3.904e-01,0.0648
3.936e-01,0.0648
3.968e-01,0.0624
4.000e-01,0.0648
4.032e-01,0.0664
4.064e-01,0.0664
4.096e-01,0.064
4.128e-01,0.0656
4.160e-01,0.0632
4.192e-01,0.0624
4.224e-01,0.0616
4.256e-01,0.0648
4.288e-01,0.064
4.320e-01,0.0648
4.352e-01,0.0632
4.384e-01,0.0648
4.416e-01,0.0632
4.448e-01,0.0664
4.480e-01,0.0632
4.512e-01,0.0656
4.544e-01,0.0664
4.576e-01,0.0616
4.608e-01,0.0592
4.640e-01,0.0616
4.672e-01,0.0624
4.704e-01,0.0624
4.736e-01,0.0632
4.768e-01,0.064
4.800e-01,0.0584
4.832e-01,0.0632
4.864e-01,0.0648
4.896e-01,0.0616
4.928e-01,0.06
4.960e-01,0.0624
4.992e-01,0.06
5.024e-01,0.0608
5.056e-01,0.0624
5.088e-01,0.0616
5.120e-01,0.0648
5.152e-01,0.064
5.184e-01,0.0624
5.216e-01,0.064
5.248e-01,0.0632
5.280e-01,0.0648
5.312e-01,0.0672
5.344e-01,0.0632
5.376e-01,0.0664
5.408e-01,0.0664
5.440e-01,0.0632
5.472e-01,0.0664
5.504e-01,0.064
5.536e-01,0.0632
5.568e-01,0.064
5.600e-01,0.0632
5.632e-01,0.0648
5.664e-01,0.0632
5.696e-01,0.0632
5.728e-01,0.0496
5.760e-01,0.0512
5.792e-01,0.0568
5.824e-01,0.0576
5.856e-01,0.0584
5.888e-01,0.0592
5.920e-01,0.0584
5.952e-01,0.0568
5.984e-01,0.0568
6.016e-01,0.0568
6.048e-01,0.0616
6.080e-01,0.0568
6.112e-01,0.0568
6.144e-01,0.0592
6.176e-01,0.0584
6.208e-01,0.0616
6.240e-01,0.0552
6.272e-01,0.0576
6.304e-01,0.0584
6.336e-01,0.056
6.368e-01,0.06
6.400e-01,0.0576
6.432e-01,0.0584
6.464e-01,0.0568
6.496e-01,0.0576
6.528e-01,0.0608
6.560e-01,0.0576
6.592e-01,0.0568
6.624e-01,0.0576
6.656e-01,0.0568
6.688e-01,0.0648
6.720e-01,0.0584
6.752e-01,0.0568
6.784e-01,0.0584
6.816e-01,0.0576
6.848e-01,0.0616
6.880e-01,0.0584
6.912e-01,0.0584
6.944e-01,0.056
6.976e-01,0.0584
7.008e-01,0.0624
7.040e-01,0.0576
7.072e-01,0.0544
7.104e-01,0.0544
7.136e-01,0.056
7.168e-01,0.06
7.200e-01,0.0544
7.232e-01,0.0536
7.264e-01,0.0576
7.296e-01,0.0544
7.328e-01,0.0616
7.360e-01,0.0552
7.392e-01,0.0576
7.424e-01,0.0552
7.456e-01,0.0576
7.488e-01,0.0624
7.520e-01,0.0568
7.552e-01,0.0568
7.584e-01,0.0576
7.616e-01,0.0568
7.648e-01,0.0624
7.680e-01,0.0568
7.712e-01,0.0568
7.744e-01,0.0576
7.776e-01,0.0584
7.808e-01,0.0624
7.840e-01,0.0584
7.872e-01,0.056
7.904e-01,0.0584
7.936e-01,0.0584
7.968e-01,0.06
8.000e-01,0.0576
8.032e-01,0.0576
8.064e-01,0.0528
8.096e-01,0.0576
8.128e-01,0.0616
8.160e-01,0.0584
8.192e-01,0.0576
8.224e-01,0.0576
8.256e-01,0.0584
8.288e-01,0.0616
8.320e-01,0.0584
8.352e-01,0.0576
8.384e-01,0.0568
8.416e-01,0.0568
8.448e-01,0.0616
8.480e-01,0.0576
8.512e-01,0.0568
8.544e-01,0.0584
8.576e-01,0.0584
8.608e-01,0.0608
8.640e-01,0.056
8.672e-01,0.0592
8.704e-01,0.0576
8.736e-01,0.0576
8.768e-01,0.0624
8.800e-01,0.0584
8.832e-01,0.0576
8.864e-01,0.0544
8.896e-01,0.0528
8.928e-01,0.0568
8.960e-01,0.0504
8.992e-01,0.0552
9.024e-01,0.0552
9.056e-01,0.056
9.088e-01,0.06
9.120e-01,0.0584
9.152e-01,0.056
9.184e-01,0.056
9.216e-01,0.0552
9.248e-01,0.06
9.280e-01,0.0568
9.312e-01,0.056
9.344e-01,0.0576
9.376e-01,0.0576
9.408e-01,0.0616
9.440e-01,0.0568
9.472e-01,0.0576
9.504e-01,0.0584
9.536e-01,0.0592
9.568e-01,0.06
9.600e-01,0.0584
9.632e-01,0.0584
9.664e-01,0.0584
9.696e-01,0.0576
9.728e-01,0.06
9.760e-01,0.0568
9.792e-01,0.0584
9.824e-01,0.0568
9.856e-01,0.0584
9.888e-01,0.0632
9.920e-01,0.056
9.952e-01,0.0576
9.984e-01,0.0584
1.002e+00,0.0576
1.005e+00,0.0608
1.008e+00,0.0584
1.011e+00,0.0584
1.014e+00,0.0584
1.018e+00,0.0584
1.021e+00,0.0608
1.024e+00,0.0576
1.027e+00,0.056
1.030e+00,0.06
1.034e+00,0.0592
1.037e+00,0.0608
1.040e+00,0.0576
1.043e+00,0.0592
1.046e+00,0.0552
1.050e+00,0.0576
1.053e+00,0.0632
1.056e+00,0.0576
1.059e+00,0.056
1.062e+00,0.06
1.066e+00,0.056
1.069e+00,0.0624
1.072e+00,0.0568
1.075e+00,0.0544
1.078e+00,0.0448
1.082e+00,0.0464
1.085e+00,0.0496
1.088e+00,0.0424
1.091e+00,0.0464
1.094e+00,0.0464
1.098e+00,0.0472
1.101e+00,0.0496
1.104e+00,0.0456
1.107e+00,0.0432
1.110e+00,0.048
1.114e+00,0.0464
1.117e+00,0.048
1.120e+00,0.0464
1.123e+00,0.048
1.126e+00,0.0464
1.130e+00,0.048
1.133e+00,0.0512
1.136e+00,0.0456
1.139e+00,0.0448
1.142e+00,0.0432
1.146e+00,0.0472
1.149e+00,0.0496
1.152e+00,0.0464
1.155e+00,0.0472
1.158e+00,0.0464
1.162e+00,0.0464
1.165e+00,0.0536
1.168e+00,0.0464
1.171e+00,0.0464
1.174e+00,0.0472
1.178e+00,0.044
1.181e+00,0.0488
1.184e+00,0.0472
1.187e+00,0.0464
1.190e+00,0.0464
1.194e+00,0.0472
1.197e+00,0.0504
1.200e+00,0.0448
1.203e+00,0.0472
1.206e+00,0.0488
1.210e+00,0.0464
1.213e+00,0.0496
1.216e+00,0.0464
1.219e+00,0.0448
1.222e+00,0.0464
1.226e+00,0.0456
1.229e+00,0.048
1.232e+00,0.0456
1.235e+00,0.0464
1.238e+00,0.0424
1.242e+00,0.0464
1.245e+00,0.0488
1.248e+00,0.0464
1.251e+00,0.0472
1.254e+00,0.0464
1.258e+00,0.0464
1.261e+00,0.0488
1.264e+00,0.0472
1.267e+00,0.048
1.270e+00,0.0464
1.274e+00,0.0488
1.277e+00,0.0496
1.280e+00,0.0464
1.283e+00,0.0456
1.286e+00,0.048
1.290e+00,0.0464
1.293e+00,0.0512
1.296e+00,0.0464
1.299e+00,0.0448
1.302e+00,0.0464
1.306e+00,0.0472
1.309e+00,0.0504
1.312e+00,0.048
1.315e+00,0.048
1.318e+00,0.0464
1.322e+00,0.0456
1.325e+00,0.0464
1.328e+00,0.0472
1.331e+00,0.0464
1.334e+00,0.0464
1.338e+00,0.0464
1.341e+00,0.0504
1.344e+00,0.0456
1.347e+00,0.044
1.350e+00,0.0472
1.354e+00,0.0464
1.357e+00,0.0496
1.360e+00,0.0456
1.363e+00,0.0448
1.366e+00,0.0456
1.370e+00,0.0472
1.373e+00,0.048
1.376e+00,0.0464
1.379e+00,0.0448
1.382e+00,0.0488
1.386e+00,0.048
1.389e+00,0.0472
1.392e+00,0.0464
1.395e+00,0.0456
1.398e+00,0.0472
1.402e+00,0.0464
1.405e+00,0.048
1.408e+00,0.0456
1.411e+00,0.0464
1.414e+00,0.0472
1.418e+00,0.048
1.421e+00,0.0504
1.424e+00,0.0472
1.427e+00,0.0448
1.430e+00,0.0464
1.434e+00,0.0448
1.437e+00,0.0472
1.440e+00,0.0432
1.443e+00,0.048
1.446e+00,0.0448
1.450e+00,0.0456
1.453e+00,0.0504
1.456e+00,0.0464
1.459e+00,0.0448
1.462e+00,0.0464
1.466e+00,0.0464
1.469e+00,0.0504
1.472e+00,0.0472
1.475e+00,0.0456
1.478e+00,0.044
1.482e+00,0.044
1.485e+00,0.0496
1.488e+00,0.0464
1.491e+00,0.0464
1.494e+00,0.048
1.498e+00,0.0472
1.501e+00,0.0496
1.504e+00,0.0456
1.507e+00,0.0464
1.510e+00,0.0472
1.514e+00,0.0448
1.517e+00,0.0512
1.520e+00,0.0432
1.523e+00,0.0464
1.526e+00,0.044
1.530e+00,0.0456
1.533e+00,0.0488
1.536e+00,0.048
1.539e+00,0.0456
1.542e+00,0.0488
1.546e+00,0.0456
1.549e+00,0.0504
1.552e+00,0.0456
1.555e+00,0.0456
1.558e+00,0.0472
1.562e+00,0.0488
1.565e+00,0.0496
1.568e+00,0.0472
1.571e+00,0.0464
1.574e+00,0.048
1.578e+00,0.0448
1.581e+00,0.0128
1.584e+00,0.0144
1.587e+00,0.0144
1.590e+00,0.0112
1.594e+00,0.012
1.597e+00,0.0112
1.600e+00,0.0096
1.603e+00,0.0104
1.606e+00,0.0096
1.610e+00,0.0096
1.613e+00,0.0112
1.616e+00,0.012
1.619e+00,0.0104
1.622e+00,0.0112
1.626e+00,0.0096
1.629e+00,0.0096
1.632e+00,0.012
1.635e+00,0.0088
1.638e+00,0.0112
1.642e+00,0.0088
1.645e+00,0.0104
1.648e+00,0.0112
1.651e+00,0.0104
1.654e+00,0.0104
1.658e+00,0.012
1.661e+00,0.0112
1.664e+00,0.0104
1.667e+00,0.0112
1.670e+00,0.0104
1.674e+00,0.0136
1.677e+00,0.0112
1.680e+00,0.0088
1.683e+00,0.0096
1.686e+00,0.0096
1.690e+00,0.0104
1.693e+00,0.0088
1.696e+00,0.0104
1.699e+00,0.0112
1.702e+00,0.0104
1.706e+00,0.0104
1.709e+00,0.0104
1.712e+00,0.0104
1.715e+00,0.0104
1.718e+00,0.0088
1.722e+00,0.0088
1.725e+00,0.0088
1.728e+00,0.012
1.731e+00,0.0112
1.734e+00,0.008
1.738e+00,0.0096
1.741e+00,0.0104
1.744e+00,0.0088
1.747e+00,0.0088
1.750e+00,0.0072
1.754e+00,0.0096
1.757e+00,0.0104
1.760e+00,0.0112
1.763e+00,0.0104
1.766e+00,0.0112
1.770e+00,0.0104
1.773e+00,0.0096
1.776e+00,0.0112
1.779e+00,0.0096
1.782e+00,0.0112
1.786e+00,0.0104
1.789e+00,0.0096
1.792e+00,0.0128
1.795e+00,0.0096
1.798e+00,0.0096
1.802e+00,0.0112
1.805e+00,0.0112
1.808e+00,0.0096
1.811e+00,0.0104
1.814e+00,0.0096
1.818e+00,0.0104
1.821e+00,0.0096
1.824e+00,0.0088
1.827e+00,0.0104
1.830e+00,0.0104
1.834e+00,0.0104
1.837e+00,0.0096
1.840e+00,0.0096
1.843e+00,0.0104
1.846e+00,0.0104
1.850e+00,0.0096
1.853e+00,0.0096
1.856e+00,0.0104
1.859e+00,0.0096
1.862e+00,0.0112
1.866e+00,0.0096
1.869e+00,0.012
1.872e+00,0.0096
1.875e+00,0.012
1.878e+00,0.0112
1.882e+00,0.0104
1.885e+00,0.0112
1.888e+00,0.0104
1.891e+00,0.0112
1.894e+00,0.0096
1.898e+00,0.0104
1.901e+00,0.0112
1.904e+00,0.0088
1.907e+00,0.0112
1.910e+00,0.0096
1.914e+00,0.012
1.917e+00,0.0088
1.920e+00,0.0112
1.923e+00,0.0104
1.926e+00,0.0104
1.930e+00,0.012
1.933e+00,0.0088
1.936e+00,0.0104
1.939e+00,0.012
1.942e+00,0.0096
1.946e+00,0.012
1.949e+00,0.0088
1.952e+00,0.012
1.955e+00,0.0112
1.958e+00,0.0104
1.962e+00,0.0112
1.965e+00,0.0112
1.968e+00,0.0096
1.971e+00,0.012
1.974e+00,0.0096
1.978e+00,0.012
1.981e+00,0.0104
1.984e+00,0.0104
1.987e+00,0.0096
1.990e+00,0.0088
1.994e+00,0.0064
1.997e+00,0.0112
2.000e+00,0.0096
2.003e+00,0.012
2.006e+00,0.0088
2.010e+00,0.012
2.013e+00,0.008
2.016e+00,0.0096
2.019e+00,0.0096
2.022e+00,0.008
2.026e+00,0.008
2.029e+00,0.0104
2.032e+00,0.008
2.035e+00,0.0104
2.038e+00,0.0096
2.042e+00,0.0112
2.045e+00,0.0096
2.048e+00,0.008
2.051e+00,0.0088
2.054e+00,0.008
2.058e+00,0.0072
2.061e+00,0.0112
2.064e+00,0.0104
2.067e+00,0.0128
2.070e+00,0.0104
2.074e+00,0.0112
2.077e+00,0.0104
2.080e+00,0.0112
2.083e+00,0.0088
2.086e+00,0.0128
2.090e+00,0.0104
2.093e+00,0.0104
2.096e+00,0.0104
2.099e+00,0.012
2.102e+00,0.0088
2.106e+00,0.0112
2.109e+00,0.0104
2.112e+00,0.0096
2.115e+00,0.0088
2.118e+00,0.0096
2.122e+00,0.012
2.125e+00,0.012
2.128e+00,0.008
2.131e+00,0.0088
2.134e+00,0.0128
2.138e+00,0.0104
2.141e+00,0.0096
2.144e+00,0.0096
2.147e+00,0.0104
2.150e+00,0.012
2.154e+00,0.0096
2.157e+00,0.0096
2.160e+00,0.0112
2.163e+00,0.0112
2.166e+00,0.012
2.170e+00,0.0104
2.173e+00,0.0096
2.176e+00,0.012
2.179e+00,0.0112
2.182e+00,0.0096
2.186e+00,0.0104
2.189e+00,0.0136
2.192e+00,0.0112
2.195e+00,0.0096
2.198e+00,0.0104
2.202e+00,0.0104
2.205e+00,0.0096
2.208e+00,0.012
2.211e+00,0.0112
2.214e+00,0.0104
2.218e+00,0.008
2.221e+00,0.0136
2.224e+00,0.0096
2.227e+00,0.0096
2.230e+00,0.0088
2.234e+00,0.0112
2.237e+00,0.0096
2.240e+00,0.0136
2.243e+00,0.0104
2.246e+00,0.0088
2.250e+00,0.0104
2.253e+00,0.0112
2.256e+00,0.0072
2.259e+00,0.0072
2.262e+00,0.0088
2.266e+00,0.0096
2.269e+00,0.0112
2.272e+00,0.0096
2.275e+00,0.0128
2.278e+00,0.0112
2.282e+00,0.0112
2.285e+00,0.0104
2.288e+00,0.0104
2.291e+00,0.0096
2.294e+00,0.0128
2.298e+00,0.0104
2.301e+00,0.0096
2.304e+00,0.0104
2.307e+00,0.0104
2.310e+00,0.0128
2.314e+00,0.0112
2.317e+00,0.0104
2.320e+00,0.0104
2.323e+00,0.0096
2.326e+00,0.0096
2.330e+00,0.012
2.333e+00,0.012
2.336e+00,0.0104
2.339e+00,0.0112
2.342e+00,0.0104
2.346e+00,0.012
2.349e+00,0.0088
2.352e+00,0.0088
2.355e+00,0.0096
2.358e+00,0.0096
2.362e+00,0.0088
2.365e+00,0.0104
2.368e+00,0.0096
2.371e+00,0.0104
2.374e+00,0.0128
2.378e+00,0.0096
2.381e+00,0.0104
2.384e+00,0.0112
2.387e+00,0.0112
2.390e+00,0.0096
2.394e+00,0.0104
2.397e+00,0.0088
2.400e+00,0.0104
2.403e+00,0.0096
2.406e+00,0.0088
2.410e+00,0.0104
2.413e+00,0.0112
2.416e+00,0.0096
2.419e+00,0.008
2.422e+00,0.0112
2.426e+00,0.0104
2.429e+00,0.012
2.432e+00,0.0104
2.435e+00,0.012
2.438e+00,0.0112
2.442e+00,0.0072
2.445e+00,0.0112
2.448e+00,0.0104
2.451e+00,0.0112
2.454e+00,0.0096
2.458e+00,0.0112
2.461e+00,0.012
2.464e+00,0.0128
2.467e+00,0.0104
2.470e+00,0.0104
2.474e+00,0.0104
2.477e+00,0.0096
2.480e+00,0.008
2.483e+00,0.0112
2.486e+00,0.0088
2.490e+00,0.0096
2.493e+00,0.0104
2.496e+00,0.0112
2.499e+00,0.0104
2.502e+00,0.0088
2.506e+00,0.012
2.509e+00,0.0128
2.512e+00,0.0104
2.515e+00,0.0104
2.518e+00,0.0112
2.522e+00,0.0112
2.525e+00,0.012
2.528e+00,0.0128
2.531e+00,0.0112
2.534e+00,0.0096
2.538e+00,0.0096
2.541e+00,0.012
2.544e+00,0.0104
2.547e+00,0.0096
2.550e+00,0.0104
2.554e+00,0.0104
2.557e+00,0.0128
2.560e+00,0.0104
2.563e+00,0.0112
2.566e+00,0.0112
2.570e+00,0.0104
2.573e+00,0.012
2.576e+00,0.0096
2.579e+00,0.0104
2.582e+00,0.012
2.586e+00,0.0088
2.589e+00,0.0088
2.592e+00,0.0112
2.595e+00,0.0136
2.598e+00,0.0096
2.602e+00,0.012
2.605e+00,0.0096
2.608e+00,0.0104
2.611e+00,0.0112
2.614e+00,0.0104
2.618e+00,0.0104
2.621e+00,0.0104
2.624e+00,0.012
2.627e+00,0.0112
2.630e+00,0.0104
2.634e+00,0.0088
2.637e+00,0.0128
2.640e+00,0.0096
2.643e+00,0.0088
2.646e+00,0.0104
2.650e+00,0.0104
2.653e+00,0.0112
2.656e+00,0.0104
2.659e+00,0.0104
2.662e+00,0.0104
2.666e+00,0.012
2.669e+00,0.0088
2.672e+00,0.0096
2.675e+00,0.0112
2.678e+00,0.0104
2.682e+00,0.0096
2.685e+00,0.0088
2.688e+00,0.0096
2.691e+00,0.0088
2.694e+00,0.0088
2.698e+00,0.0112
2.701e+00,0.0112
2.704e+00,0.0096
2.707e+00,0.0096
2.710e+00,0.0104
2.714e+00,0.0088
2.717e+00,0.0112
2.720e+00,0.0112
2.723e+00,0.0096
2.726e+00,0.0088
2.730e+00,0.0112
2.733e+00,0.0096
2.736e+00,0.0096
2.739e+00,0.0104
2.742e+00,0.0104
2.746e+00,0.0112
2.749e+00,0.0088
2.752e+00,0.0096
2.755e+00,0.0096
2.758e+00,0.012
2.762e+00,0.0096
2.765e+00,0.008
2.768e+00,0.008
2.771e+00,0.0096
2.774e+00,0.0088
2.778e+00,0.0112
2.781e+00,0.0104
2.784e+00,0.0104
2.787e+00,0.0104
2.790e+00,0.0112
2.794e+00,0.012
2.797e+00,0.008
2.800e+00,0.0104
2.803e+00,0.0096
2.806e+00,0.0096
2.810e+00,0.008
2.813e+00,0.0096
2.816e+00,0.0088
2.819e+00,0.0104
2.822e+00,0.0104
2.826e+00,0.0104
2.829e+00,0.012
2.832e+00,0.0088
2.835e+00,0.008
2.838e+00,0.0112
2.842e+00,0.0104
2.845e+00,0.0088
2.848e+00,0.0096
2.851e+00,0.008
2.854e+00,0.0104
2.858e+00,0.0104
2.861e+00,0.0104
2.864e+00,0.0104
2.867e+00,0.0096
2.870e+00,0.0088
2.874e+00,0.0096
2.877e+00,0.0128
2.880e+00,0.0104
2.883e+00,0.0136
2.886e+00,0.0104
2.890e+00,0.0096
2.893e+00,0.012
2.896e+00,0.0104
2.899e+00,0.0104
2.902e+00,0.0104
2.906e+00,0.0096
2.909e+00,0.012
2.912e+00,0.0104
2.915e+00,0.012
2.918e+00,0.0112
2.922e+00,0.0112
2.925e+00,0.0096
2.928e+00,0.0088
2.931e+00,0.0088
2.934e+00,0.0112
2.938e+00,0.0096
2.941e+00,0.0112
2.944e+00,0.0096
2.947e+00,0.0088
2.950e+00,0.0096
2.954e+00,0.0088
2.957e+00,0.012
2.960e+00,0.0104
2.963e+00,0.0112
2.966e+00,0.008
2.970e+00,0.012
2.973e+00,0.012
2.976e+00,0.0104
2.979e+00,0.0096
2.982e+00,0.0096
2.986e+00,0.0128
2.989e+00,0.0104
2.992e+00,0.0104
2.995e+00,0.0112
2.998e+00,0.0096
3.002e+00,0.0128
3.005e+00,0.0088
3.008e+00,0.012
3.011e+00,0.0104
3.014e+00,0.0112
3.018e+00,0.0096
3.021e+00,0.0096
3.024e+00,0.0096
3.027e+00,0.0104
3.030e+00,0.0112
3.034e+00,0.0104
3.037e+00,0.0104
3.040e+00,0.0112
3.043e+00,0.0096
3.046e+00,0.0112
3.050e+00,0.0104
3.053e+00,0.0096
3.056e+00,0.0088
3.059e+00,0.0104
3.062e+00,0.0096
3.066e+00,0.0104
3.069e+00,0.0088
3.072e+00,0.0096
3.075e+00,0.012
3.078e+00,0.0096
3.082e+00,0.008
3.085e+00,0.0112
3.088e+00,0.0112
3.091e+00,0.0088
3.094e+00,0.0104
3.098e+00,0.0096
3.101e+00,0.012
3.104e+00,0.0104
3.107e+00,0.0104
3.110e+00,0.0088
3.114e+00,0.0104
3.117e+00,0.0088
3.120e+00,0.008
3.123e+00,0.0088
3.126e+00,0.0096
3.130e+00,0.0112
3.133e+00,0.0096
3.136e+00,0.0096
3.139e+00,0.0128
3.142e+00,0.0104
3.146e+00,0.0096
3.149e+00,0.012
3.152e+00,0.0112
3.155e+00,0.0096
3.158e+00,0.0112
3.162e+00,0.012
3.165e+00,0.0112
3.168e+00,0.012
3.171e+00,0.0104
3.174e+00,0.0112
3.178e+00,0.0112
3.181e+00,0.0096
3.184e+00,0.0072
3.187e+00,0.012
3.190e+00,0.0056
3.194e+00,0.0048
3.197e+00,0.0048

